Br (Z = 35) Atomic weight: Ar = 79.90400 g mol-1   Nominal density:   ? (g cm-3) = 3.1100
sigma(barns/atom) = [mue/rho](cm2 g-1)  ×  1.32684E+02
E(eV) [mue/rho](cm2 g-1) = f2(e atom-1)  ×  5.26636E+05 
9 edges. Edge energies (keV):
K      1.34737E+01  
L I    1.78200E+00  
L II   1.59600E+00  
L III  1.54990E+00 
M I    2.56500E-01  
M II   1.89300E-01 
M III  1.81500E-01  
M IV   7.01000E-02 
M V    6.90000E-02 
Data
E/keV            [mue/rho]Photoelectric/cm2g-1
6.923942E-02  2.1385E+03
6.934500E-02  2.1628E+03
6.974950E-02  2.2583E+03
7.002990E-02  2.3266E+03
7.038000E-02  3.8094E+03
7.045050E-02  3.8379E+03
7.150200E-02  4.2861E+03
7.401695E-02  5.5461E+03
7.912411E-02  9.0066E+03
8.458368E-02  1.3592E+04
9.041995E-02  1.9048E+04
9.665893E-02  2.5012E+04
1.033284E-01  3.1029E+04
1.104581E-01  3.6629E+04
1.180797E-01  4.1409E+04
1.262272E-01  4.5083E+04
1.349368E-01  4.7502E+04
1.442475E-01  4.8649E+04
1.542005E-01  4.8610E+04
1.648404E-01  4.7544E+04
1.762144E-01  4.5645E+04
1.778700E-01  4.5324E+04
1.805925E-01  4.4778E+04
1.813185E-01  4.4629E+04
1.824075E-01  4.6760E+04
1.851300E-01  4.6235E+04
1.855140E-01  4.6160E+04
1.883732E-01  4.5592E+04
1.891107E-01  4.5443E+04
1.902465E-01  4.6188E+04
1.930860E-01  4.5630E+04
2.013709E-01  4.3969E+04
2.152655E-01  4.1123E+04
2.301188E-01  3.8101E+04
2.459970E-01  3.5007E+04
2.513700E-01  3.4005E+04
2.552175E-01  3.3302E+04
2.562435E-01  3.3117E+04
2.577825E-01  3.4255E+04
2.616300E-01  3.3567E+04
2.629708E-01  3.3331E+04
2.811158E-01  3.0295E+04
3.005128E-01  2.7361E+04
3.212482E-01  2.4559E+04
3.434143E-01  2.1925E+04
3.671099E-01  1.9479E+04
3.924405E-01  1.7233E+04
4.195189E-01  1.5188E+04
4.484657E-01  1.3342E+04
4.794098E-01  1.1686E+04
5.124891E-01  1.0208E+04
5.478508E-01  8.8968E+03
5.856525E-01  7.7376E+03
6.260625E-01  6.7170E+03
6.692609E-01  5.8212E+03
7.154399E-01  5.0373E+03
7.648052E-01  4.3525E+03
8.175768E-01  3.7552E+03
8.739896E-01  3.2360E+03
9.0000000E-01  3.0303E+03
9.0450000E-01  2.9966E+03
9.0902250E-01  2.9633E+03
9.1356761E-01  2.9303E+03
9.1813545E-01  2.8977E+03
9.2272613E-01  2.8654E+03
9.2733976E-01  2.8335E+03
9.3197646E-01  2.8020E+03
9.3663634E-01  2.7708E+03
9.4131952E-01  2.7399E+03
9.4602612E-01  2.7094E+03
9.5075625E-01  2.6792E+03
9.5551003E-01  2.6493E+03
9.6028758E-01  2.6198E+03
9.6508902E-01  2.5906E+03
9.6991446E-01  2.5617E+03
9.7476404E-01  2.5332E+03
9.7963786E-01  2.5049E+03
9.8453605E-01  2.4770E+03
9.8945873E-01  2.4494E+03
9.9440602E-01  2.4221E+03
9.9937805E-01  2.3951E+03
1.0043749E+00  2.3652E+03
1.0093968E+00  2.3353E+03
1.0144438E+00  2.3058E+03
1.0195160E+00  2.2767E+03
1.0246136E+00  2.2480E+03
1.0297367E+00  2.2194E+03
1.0348853E+00  2.1911E+03
1.0400598E+00  2.1632E+03
1.0452601E+00  2.1357E+03
1.0504864E+00  2.1086E+03
1.0557388E+00  2.0818E+03
1.0610175E+00  2.0553E+03
1.0663226E+00  2.0293E+03
1.0716542E+00  2.0035E+03
1.0770125E+00  1.9781E+03
1.0823975E+00  1.9530E+03
1.0878095E+00  1.9283E+03
1.0932486E+00  1.9039E+03
1.0987148E+00  1.8798E+03
1.1042084E+00  1.8560E+03
1.1097294E+00  1.8325E+03
1.1152781E+00  1.8094E+03
1.1208545E+00  1.7865E+03
1.1264587E+00  1.7640E+03
1.1320910E+00  1.7417E+03
1.1377515E+00  1.7197E+03
1.1434402E+00  1.6981E+03
1.1491574E+00  1.6767E+03
1.1549032E+00  1.6556E+03
1.1606777E+00  1.6347E+03
1.1664811E+00  1.6142E+03
1.1723135E+00  1.5939E+03
1.1781751E+00  1.5738E+03
1.1840660E+00  1.5541E+03
1.1899863E+00  1.5346E+03
1.1959362E+00  1.5153E+03
1.2019159E+00  1.4963E+03
1.2079255E+00  1.4775E+03
1.2139651E+00  1.4590E+03
1.2200350E+00  1.4408E+03
1.2261351E+00  1.4227E+03
1.2322658E+00  1.4049E+03
1.2384271E+00  1.3874E+03
1.2446193E+00  1.3700E+03
1.2508424E+00  1.3529E+03
1.2570966E+00  1.3360E+03
1.2633821E+00  1.3193E+03
1.2696990E+00  1.3029E+03
1.2760475E+00  1.2867E+03
1.2824277E+00  1.2706E+03
1.2888399E+00  1.2548E+03
1.2952840E+00  1.2392E+03
1.3017605E+00  1.2234E+03
1.3082693E+00  1.2078E+03
1.3148106E+00  1.1924E+03
1.3213847E+00  1.1770E+03
1.3279916E+00  1.1617E+03
1.3346316E+00  1.1467E+03
1.3413047E+00  1.1319E+03
1.3480112E+00  1.1173E+03
1.3547513E+00  1.1028E+03
1.3615250E+00  1.0886E+03
1.3683327E+00  1.0746E+03
1.3751743E+00  1.0607E+03
1.3820502E+00  1.0471E+03
1.3889605E+00  1.0336E+03
1.3959053E+00  1.0204E+03
1.4028848E+00  1.0073E+03
1.4098992E+00  9.9434E+02
1.4169487E+00  9.8160E+02
1.4240335E+00  9.6903E+02
1.4311536E+00  9.5663E+02
1.4383094E+00  9.4440E+02
1.4455009E+00  9.3233E+02
1.4527284E+00  9.2043E+02
1.4599921E+00  9.0869E+02
1.4672920E+00  8.9711E+02
1.4746285E+00  8.8569E+02
1.4820016E+00  8.7442E+02
1.4894117E+00  8.6330E+02
1.4968587E+00  8.5233E+02
1.5043430E+00  8.4151E+02
1.5118647E+00  8.3084E+02
1.5194240E+00  8.2031E+02
1.5270212E+00  8.0992E+02
1.5346563E+00  7.9967E+02
1.5423295E+00  7.8956E+02
1.5497311E+00  7.7998E+02
1.5500412E+00  3.8916E+03
1.5500690E+00  3.8914E+03
1.5577914E+00  3.8413E+03
1.5655804E+00  3.7917E+03
1.5734083E+00  3.7427E+03
1.5812753E+00  3.6944E+03
1.5891817E+00  3.6467E+03
1.5958196E+00  3.6073E+03
1.5961803E+00  5.0974E+03
1.5971276E+00  5.0896E+03
1.6051132E+00  5.0240E+03
1.6131388E+00  4.9594E+03
1.6212045E+00  4.8955E+03
1.6293105E+00  4.8325E+03
1.6374571E+00  4.7703E+03
1.6456443E+00  4.7090E+03
1.6538726E+00  4.6484E+03
1.6621419E+00  4.5886E+03
1.6704526E+00  4.5296E+03
1.6788049E+00  4.4713E+03
1.6871989E+00  4.4138E+03
1.6956349E+00  4.3570E+03
1.7041131E+00  4.3010E+03
1.7126337E+00  4.2457E+03
1.7211968E+00  4.1912E+03
1.7298028E+00  4.1373E+03
1.7384518E+00  4.0841E+03
1.7471441E+00  4.0316E+03
1.7558798E+00  3.9798E+03
1.7646592E+00  3.9287E+03
1.7734825E+00  3.8782E+03
1.7804852E+00  3.8388E+03
1.7823499E+00  4.3976E+03
1.7835146E+00  4.3904E+03
1.7912617E+00  4.3428E+03
1.8002180E+00  4.2887E+03
1.8092191E+00  4.2353E+03
1.8182652E+00  4.1825E+03
1.8273565E+00  4.1305E+03
1.8364933E+00  4.0790E+03
1.8456757E+00  4.0283E+03
1.8549041E+00  3.9781E+03
1.8641786E+00  3.9287E+03
1.8734995E+00  3.8800E+03
1.8828670E+00  3.8324E+03
1.8922814E+00  3.7854E+03
1.9017428E+00  3.7390E+03
1.9112515E+00  3.6933E+03
1.9208077E+00  3.6481E+03
1.9304118E+00  3.6036E+03
1.9400638E+00  3.5596E+03
1.9497642E+00  3.5162E+03
1.9595130E+00  3.4734E+03
1.9693105E+00  3.4311E+03
1.9791571E+00  3.3894E+03
1.9890529E+00  3.3482E+03
1.9989981E+00  3.3076E+03
2.0089931E+00  3.2675E+03
2.0190381E+00  3.2277E+03
2.0291333E+00  3.1881E+03
2.0392790E+00  3.1490E+03
2.0494754E+00  3.1105E+03
2.0597227E+00  3.0724E+03
2.0700213E+00  3.0348E+03
2.0803714E+00  2.9975E+03
2.0907733E+00  2.9606E+03
2.1012272E+00  2.9241E+03
2.1117333E+00  2.8881E+03
2.1222920E+00  2.8526E+03
2.1329034E+00  2.8174E+03
2.1435680E+00  2.7828E+03
2.1542858E+00  2.7485E+03
2.1650572E+00  2.7147E+03
2.1758825E+00  2.6813E+03
2.1867619E+00  2.6483E+03
2.1976957E+00  2.6157E+03
2.2086842E+00  2.5836E+03
2.2197276E+00  2.5518E+03
2.2308263E+00  2.5204E+03
2.2419804E+00  2.4894E+03
2.2531903E+00  2.4588E+03
2.2644562E+00  2.4286E+03
2.2757785E+00  2.3987E+03
2.2871574E+00  2.3692E+03
2.2985932E+00  2.3400E+03
2.3100862E+00  2.3113E+03
2.3216366E+00  2.2827E+03
2.3332448E+00  2.2544E+03
2.3449110E+00  2.2264E+03
2.3566356E+00  2.1987E+03
2.3684187E+00  2.1714E+03
2.3802608E+00  2.1444E+03
2.3921621E+00  2.1177E+03
2.4041230E+00  2.0914E+03
2.4161436E+00  2.0654E+03
2.4282243E+00  2.0397E+03
2.4403654E+00  2.0143E+03
2.4525672E+00  1.9893E+03
2.4648301E+00  1.9645E+03
2.4771542E+00  1.9401E+03
2.4895400E+00  1.9160E+03
2.5019877E+00  1.8921E+03
2.5144976E+00  1.8686E+03
2.5270701E+00  1.8453E+03
2.5397055E+00  1.8223E+03
2.5524040E+00  1.7996E+03
2.5651660E+00  1.7772E+03
2.5779919E+00  1.7551E+03
2.5908818E+00  1.7333E+03
2.6038362E+00  1.7117E+03
2.6168554E+00  1.6904E+03
2.6299397E+00  1.6693E+03
2.6430894E+00  1.6485E+03
2.6563048E+00  1.6280E+03
2.6695863E+00  1.6077E+03
2.6829343E+00  1.5877E+03
2.6963489E+00  1.5680E+03
2.7098307E+00  1.5485E+03
2.7233798E+00  1.5292E+03
2.7369967E+00  1.5101E+03
2.7506817E+00  1.4914E+03
2.7644351E+00  1.4728E+03
2.7782573E+00  1.4545E+03
2.7921486E+00  1.4364E+03
2.8061093E+00  1.4185E+03
2.8201399E+00  1.4009E+03
2.8342406E+00  1.3834E+03
2.8484118E+00  1.3662E+03
2.8626539E+00  1.3493E+03
2.8769671E+00  1.3325E+03
2.8913520E+00  1.3159E+03
2.9058087E+00  1.2996E+03
2.9203378E+00  1.2834E+03
2.9349394E+00  1.2675E+03
2.9496141E+00  1.2518E+03
2.9643622E+00  1.2362E+03
2.9791840E+00  1.2209E+03
2.9940799E+00  1.2058E+03
3.0090503E+00  1.1904E+03
3.0240956E+00  1.1750E+03
3.0392161E+00  1.1598E+03
3.0544122E+00  1.1448E+03
3.0696842E+00  1.1300E+03
3.0850326E+00  1.1153E+03
3.1004578E+00  1.1009E+03
3.1159601E+00  1.0863E+03
3.1315399E+00  1.0718E+03
3.1471976E+00  1.0576E+03
3.1629336E+00  1.0436E+03
3.1787482E+00  1.0297E+03
3.1946420E+00  1.0160E+03
3.2106152E+00  1.0024E+03
3.2266683E+00  9.8890E+02
3.2428016E+00  9.7561E+02
3.2590156E+00  9.6251E+02
3.2753107E+00  9.4959E+02
3.2916873E+00  9.3685E+02
3.3081457E+00  9.2428E+02
3.3246864E+00  9.1189E+02
3.3413099E+00  8.9967E+02
3.3580164E+00  8.8762E+02
3.3748065E+00  8.7574E+02
3.3916805E+00  8.6402E+02
3.4086389E+00  8.5247E+02
3.4256821E+00  8.4102E+02
3.4428105E+00  8.2973E+02
3.4600246E+00  8.1859E+02
3.4773247E+00  8.0761E+02
3.4947113E+00  7.9679E+02
3.5121849E+00  7.8611E+02
3.5297458E+00  7.7558E+02
3.5473945E+00  7.6520E+02
3.5651315E+00  7.5493E+02
3.5829572E+00  7.4463E+02
3.6008719E+00  7.3446E+02
3.6188763E+00  7.2444E+02
3.6369707E+00  7.1456E+02
3.6551555E+00  7.0482E+02
3.6734313E+00  6.9522E+02
3.6917985E+00  6.8574E+02
3.7102575E+00  6.7640E+02
3.7288088E+00  6.6719E+02
3.7474528E+00  6.5811E+02
3.7661901E+00  6.4916E+02
3.7850210E+00  6.4033E+02
3.8039461E+00  6.3162E+02
3.8229659E+00  6.2304E+02
3.8420807E+00  6.1457E+02
3.8612911E+00  6.0623E+02
3.8805975E+00  5.9799E+02
3.9000005E+00  5.8988E+02
3.9195005E+00  5.8187E+02
3.9390980E+00  5.7398E+02
3.9587935E+00  5.6620E+02
3.9785875E+00  5.5852E+02
3.9984804E+00  5.5096E+02