Zn (Z = 30) Atomic weight: Ar = 65.38000 g mol-1   Nominal density:   rho (g cm-3) = 7.1120
sigma(barns/atom) = [mue/rho](cm2 g-1)  ×  1.08566E+02
E(eV) [mue/rho](cm2 g-1) = f2(e atom-1)  ×  6.43627E+05
9 edges. Edge energies (keV):
K      9.65860E+00  
L I    1.19360E+00  
L II   1.04280E+00  
L III  1.01970E+00 
M I    1.35900E-01  
M II   8.66000E-02  
M III  8.66000E-02  
M IV   8.10000E-03 
M V    8.10000E-03 
Data
E/keV            [mue/rho]Photoelectric/cm2g-1
8.140500E-03  5.2275E+04
8.262000E-03  5.2416E+04
1.069000E-02  5.5176E+04
1.142761E-02  5.6102E+04
1.221612E-02  5.7145E+04
1.305903E-02  5.8313E+04
1.396010E-02  5.9612E+04
1.492335E-02  6.1041E+04
1.595306E-02  6.2600E+04
1.705382E-02  6.4283E+04
1.823053E-02  6.6081E+04
1.948844E-02  6.7982E+04
2.083314E-02  6.9969E+04
2.227063E-02  7.2024E+04
2.380730E-02  7.4123E+04
2.545001E-02  7.6237E+04
2.720606E-02  7.8335E+04
2.908327E-02  8.0383E+04
3.109002E-02  8.2341E+04
3.323523E-02  8.4158E+04
3.552846E-02  8.5679E+04
3.797993E-02  8.6845E+04
4.060054E-02  8.7636E+04
4.340198E-02  8.8040E+04
4.639671E-02  8.8054E+04
4.959809E-02  8.7682E+04
5.302035E-02  8.6937E+04
5.667876E-02  8.5841E+04
6.058959E-02  8.4420E+04
6.477028E-02  8.2586E+04
6.923942E-02  8.0271E+04
7.401695E-02  7.7641E+04
7.912411E-02  7.4738E+04
8.458368E-02  7.1607E+04
8.486800E-02  7.1444E+04
8.616700E-02  7.0702E+04
8.651340E-02  7.0505E+04
8.703300E-02  8.0620E+04
8.833200E-02  7.9386E+04
9.041995E-02  7.7473E+04
9.665893E-02  7.2228E+04
1.033284E-01  6.7553E+04
1.104581E-01  6.3343E+04
1.180797E-01  5.9437E+04
1.262272E-01  5.5764E+04
1.331820E-01  5.2958E+04
1.349368E-01  5.2292E+04
1.352205E-01  5.2186E+04
1.357641E-01  5.1984E+04
1.365795E-01  5.3860E+04
1.386180E-01  5.3124E+04
1.442475E-01  5.1189E+04
1.542005E-01  4.7737E+04
1.648404E-01  4.3222E+04
1.762144E-01  3.9068E+04
1.883732E-01  3.5262E+04
2.013709E-01  3.1784E+04
2.152655E-01  2.8611E+04
2.301188E-01  2.5720E+04
2.459970E-01  2.3087E+04
2.629708E-01  2.0689E+04
2.811158E-01  1.8505E+04
3.005128E-01  1.6518E+04
3.212482E-01  1.4711E+04
3.434143E-01  1.3070E+04
3.671099E-01  1.1580E+04
3.924405E-01  1.0228E+04
4.195189E-01  9.0062E+03
4.484657E-01  7.9077E+03
4.794098E-01  6.9250E+03
5.124891E-01  6.0501E+03
5.478508E-01  5.2749E+03
5.856525E-01  4.5905E+03
6.260625E-01  3.9888E+03
6.692609E-01  3.4614E+03
7.154399E-01  3.0008E+03
7.648052E-01  2.5995E+03
8.175768E-01  2.2507E+03
8.739896E-01  1.9480E+03
9.0000000E-01  1.8282E+03
9.0450000E-01  1.8085E+03
9.0902250E-01  1.7891E+03
9.1356761E-01  1.7698E+03
9.1813545E-01  1.7508E+03
9.2272613E-01  1.7320E+03
9.2733976E-01  1.7134E+03
9.3197646E-01  1.6950E+03
9.3663634E-01  1.6768E+03
9.4131952E-01  1.6588E+03
9.4602612E-01  1.6409E+03
9.5075625E-01  1.6233E+03
9.5551003E-01  1.6059E+03
9.6028758E-01  1.5886E+03
9.6508902E-01  1.5715E+03
9.6991446E-01  1.5547E+03
9.7476404E-01  1.5380E+03
9.7963786E-01  1.5214E+03
9.8453605E-01  1.5051E+03
9.8945873E-01  1.4889E+03
9.9440602E-01  1.4729E+03
9.9937805E-01  1.4571E+03
1.0043749E+00  1.4392E+03
1.0093968E+00  1.4211E+03
1.0144438E+00  1.4033E+03
1.0195160E+00  1.3857E+03
1.0196290E+00  1.3853E+03
1.0197711E+00  7.9347E+03
1.0246136E+00  7.8328E+03
1.0297367E+00  7.7270E+03
1.0348853E+00  7.6226E+03
1.0400598E+00  7.5196E+03
1.0427279E+00  7.4673E+03
1.0428720E+00  1.0616E+04
1.0452601E+00  1.0550E+04
1.0504864E+00  1.0408E+04
1.0557388E+00  1.0267E+04
1.0610175E+00  1.0129E+04
1.0663226E+00  9.9921E+03
1.0716542E+00  9.8572E+03
1.0770125E+00  9.7241E+03
1.0823975E+00  9.5929E+03
1.0878095E+00  9.4634E+03
1.0932486E+00  9.3357E+03
1.0987148E+00  9.2097E+03
1.1042084E+00  9.0855E+03
1.1097294E+00  8.9629E+03
1.1152781E+00  8.8420E+03
1.1208545E+00  8.7227E+03
1.1264587E+00  8.6051E+03
1.1320910E+00  8.4890E+03
1.1377515E+00  8.3746E+03
1.1434402E+00  8.2616E+03
1.1491574E+00  8.1503E+03
1.1549032E+00  8.0404E+03
1.1606777E+00  7.9320E+03
1.1664811E+00  7.8251E+03
1.1723135E+00  7.7196E+03
1.1781751E+00  7.6156E+03
1.1840660E+00  7.5130E+03
1.1899863E+00  7.4118E+03
1.1924542E+00  7.3702E+03
1.1947459E+00  8.3177E+03
1.1959362E+00  8.2964E+03
1.2019159E+00  8.1902E+03
1.2079255E+00  8.0854E+03
1.2139651E+00  7.9820E+03
1.2200350E+00  7.8800E+03
1.2261351E+00  7.7793E+03
1.2322658E+00  7.6799E+03
1.2384271E+00  7.5819E+03
1.2446193E+00  7.4851E+03
1.2508424E+00  7.3896E+03
1.2570966E+00  7.2956E+03
1.2633821E+00  7.2030E+03
1.2696990E+00  7.1116E+03
1.2760475E+00  7.0214E+03
1.2824277E+00  6.9325E+03
1.2888399E+00  6.8447E+03
1.2952840E+00  6.7581E+03
1.3017605E+00  6.6726E+03
1.3082693E+00  6.5883E+03
1.3148106E+00  6.5051E+03
1.3213847E+00  6.4230E+03
1.3279916E+00  6.3425E+03
1.3346316E+00  6.2638E+03
1.3413047E+00  6.1862E+03
1.3480112E+00  6.1096E+03
1.3547513E+00  6.0340E+03
1.3615250E+00  5.9598E+03
1.3683327E+00  5.8867E+03
1.3751743E+00  5.8146E+03
1.3820502E+00  5.7434E+03
1.3889605E+00  5.6731E+03
1.3959053E+00  5.6038E+03
1.4028848E+00  5.5354E+03
1.4098992E+00  5.4678E+03
1.4169487E+00  5.4012E+03
1.4240335E+00  5.3353E+03
1.4311536E+00  5.2704E+03
1.4383094E+00  5.2063E+03
1.4455009E+00  5.1430E+03
1.4527284E+00  5.0805E+03
1.4599921E+00  5.0188E+03
1.4672920E+00  4.9579E+03
1.4746285E+00  4.8978E+03
1.4820016E+00  4.8385E+03
1.4894117E+00  4.7799E+03
1.4968587E+00  4.7220E+03
1.5043430E+00  4.6649E+03
1.5118647E+00  4.6085E+03
1.5194240E+00  4.5529E+03
1.5270212E+00  4.4979E+03
1.5346563E+00  4.4436E+03
1.5423295E+00  4.3900E+03
1.5500412E+00  4.3370E+03
1.5577914E+00  4.2842E+03
1.5655804E+00  4.2318E+03
1.5734083E+00  4.1801E+03
1.5812753E+00  4.1290E+03
1.5891817E+00  4.0786E+03
1.5971276E+00  4.0288E+03
1.6051132E+00  3.9796E+03
1.6131388E+00  3.9310E+03
1.6212045E+00  3.8830E+03
1.6293105E+00  3.8354E+03
1.6374571E+00  3.7881E+03
1.6456443E+00  3.7415E+03
1.6538726E+00  3.6954E+03
1.6621419E+00  3.6499E+03
1.6704526E+00  3.6049E+03
1.6788049E+00  3.5605E+03
1.6871989E+00  3.5166E+03
1.6956349E+00  3.4733E+03
1.7041131E+00  3.4306E+03
1.7126337E+00  3.3883E+03
1.7211968E+00  3.3466E+03
1.7298028E+00  3.3054E+03
1.7384518E+00  3.2647E+03
1.7471441E+00  3.2245E+03
1.7558798E+00  3.1848E+03
1.7646592E+00  3.1456E+03
1.7734825E+00  3.1069E+03
1.7823499E+00  3.0686E+03
1.7912617E+00  3.0308E+03
1.8002180E+00  2.9935E+03
1.8092191E+00  2.9567E+03
1.8182652E+00  2.9203E+03
1.8273565E+00  2.8843E+03
1.8364933E+00  2.8488E+03
1.8456757E+00  2.8138E+03
1.8549041E+00  2.7791E+03
1.8641786E+00  2.7449E+03
1.8734995E+00  2.7111E+03
1.8828670E+00  2.6778E+03
1.8922814E+00  2.6448E+03
1.9017428E+00  2.6123E+03
1.9112515E+00  2.5801E+03
1.9208077E+00  2.5484E+03
1.9304118E+00  2.5170E+03
1.9400638E+00  2.4860E+03
1.9497642E+00  2.4554E+03
1.9595130E+00  2.4252E+03
1.9693105E+00  2.3954E+03
1.9791571E+00  2.3659E+03
1.9890529E+00  2.3368E+03
1.9989981E+00  2.3080E+03
2.0089931E+00  2.2796E+03
2.0190381E+00  2.2516E+03
2.0291333E+00  2.2239E+03
2.0392790E+00  2.1965E+03
2.0494754E+00  2.1688E+03
2.0597227E+00  2.1414E+03
2.0700213E+00  2.1143E+03
2.0803714E+00  2.0876E+03
2.0907733E+00  2.0610E+03
2.1012272E+00  2.0346E+03
2.1117333E+00  2.0085E+03
2.1222920E+00  1.9828E+03
2.1329034E+00  1.9574E+03
2.1435680E+00  1.9323E+03
2.1542858E+00  1.9075E+03
2.1650572E+00  1.8831E+03
2.1758825E+00  1.8590E+03
2.1867619E+00  1.8352E+03
2.1976957E+00  1.8117E+03
2.2086842E+00  1.7885E+03
2.2197276E+00  1.7655E+03
2.2308263E+00  1.7429E+03
2.2419804E+00  1.7206E+03
2.2531903E+00  1.6986E+03
2.2644562E+00  1.6769E+03
2.2757785E+00  1.6554E+03
2.2871574E+00  1.6342E+03
2.2985932E+00  1.6133E+03
2.3100862E+00  1.5927E+03
2.3216366E+00  1.5723E+03
2.3332448E+00  1.5522E+03
2.3449110E+00  1.5323E+03
2.3566356E+00  1.5128E+03
2.3684187E+00  1.4934E+03
2.3802608E+00  1.4743E+03
2.3921621E+00  1.4554E+03
2.4041230E+00  1.4366E+03
2.4161436E+00  1.4180E+03
2.4282243E+00  1.3997E+03
2.4403654E+00  1.3816E+03
2.4525672E+00  1.3637E+03
2.4648301E+00  1.3461E+03
2.4771542E+00  1.3287E+03
2.4895400E+00  1.3116E+03
2.5019877E+00  1.2946E+03
2.5144976E+00  1.2779E+03
2.5270701E+00  1.2614E+03
2.5397055E+00  1.2451E+03
2.5524040E+00  1.2291E+03
2.5651660E+00  1.2132E+03
2.5779919E+00  1.1975E+03
2.5908818E+00  1.1820E+03
2.6038362E+00  1.1667E+03
2.6168554E+00  1.1517E+03
2.6299397E+00  1.1368E+03
2.6430894E+00  1.1221E+03
2.6563048E+00  1.1076E+03
2.6695863E+00  1.0933E+03
2.6829343E+00  1.0792E+03
2.6963489E+00  1.0653E+03
2.7098307E+00  1.0516E+03
2.7233798E+00  1.0380E+03
2.7369967E+00  1.0246E+03
2.7506817E+00  1.0114E+03
2.7644351E+00  9.9838E+02
2.7782573E+00  9.8552E+02
2.7921486E+00  9.7283E+02
2.8061093E+00  9.6030E+02
2.8201399E+00  9.4795E+02
2.8342406E+00  9.3575E+02
2.8484118E+00  9.2372E+02
2.8626539E+00  9.1184E+02
2.8769671E+00  9.0012E+02
2.8913520E+00  8.8855E+02
2.9058087E+00  8.7714E+02
2.9203378E+00  8.6588E+02
2.9349394E+00  8.5476E+02
2.9496141E+00  8.4379E+02
2.9643622E+00  8.3297E+02
2.9791840E+00  8.2229E+02
2.9940799E+00  8.1175E+02
3.0090503E+00  8.0094E+02
3.0240956E+00  7.9001E+02
3.0392161E+00  7.7924E+02
3.0544122E+00  7.6861E+02
3.0696842E+00  7.5814E+02
3.0850326E+00  7.4781E+02
3.1004578E+00  7.3762E+02
3.1159601E+00  7.2758E+02
3.1315399E+00  7.1768E+02
3.1471976E+00  7.0791E+02
3.1629336E+00  6.9828E+02
3.1787482E+00  6.8879E+02
3.1946420E+00  6.7943E+02
3.2106152E+00  6.7020E+02
3.2266683E+00  6.6110E+02
3.2428016E+00  6.5212E+02
3.2590156E+00  6.4327E+02
3.2753107E+00  6.3454E+02
3.2916873E+00  6.2594E+02
3.3081457E+00  6.1745E+02
3.3246864E+00  6.0908E+02
3.3413099E+00  6.0083E+02
3.3580164E+00  5.9269E+02
3.3748065E+00  5.8467E+02
3.3916805E+00  5.7676E+02
3.4086389E+00  5.6896E+02
3.4256821E+00  5.6126E+02
3.4428105E+00  5.5368E+02
3.4600246E+00  5.4619E+02
3.4773247E+00  5.3882E+02
3.4947113E+00  5.3154E+02
3.5121849E+00  5.2437E+02
3.5297458E+00  5.1729E+02
3.5473945E+00  5.1031E+02
3.5651315E+00  5.0343E+02
3.5829572E+00  4.9665E+02
3.6008719E+00  4.8996E+02
3.6188763E+00  4.8336E+02
3.6369707E+00  4.7685E+02
3.6551555E+00  4.7043E+02
3.6734313E+00  4.6410E+02
3.6917985E+00  4.5786E+02
3.7102575E+00  4.5170E+02
3.7288088E+00  4.4563E+02
3.7474528E+00  4.3964E+02
3.7661901E+00  4.3373E+02
3.7850210E+00  4.2791E+02
3.8039461E+00  4.2216E+02
3.8229659E+00  4.1650E+02
3.8420807E+00  4.1091E+02
3.8612911E+00  4.0540E+02
3.8805975E+00  3.9997E+02
3.9000005E+00  3.9461E+02
3.9195005E+00  3.8932E+02
3.9390980E+00  3.8411E+02
3.9587935E+00  3.7897E+02
3.9785875E+00  3.7390E+02
3.9984804E+00  3.6890E+02